PE UV       SUBTECH     SPECTRUM    ASCII       PEDS        4.00        
   -1
Sample49.Sample.Raw.asc
21/02/09
14:51:57.00
21/02/09
14:51:57.00
Administrator

300.000000
1
Lambda 850
850L1710193
PerkinElmer UV WinLab 6.4.0.973 / 2.02.06 Lambda 800 UV/VIS, Jan 28 2016 16:58:34

0
0
2
0
0
UV/VIS
1
1
1
RBeamAtt,SBeamAtt,60mm sphere
0
0
0
0
Fix
 
0
0.2
0
0
0
 
 
 
0
 
0
340
0
Front
100
 
S:100 R:100
 
0
0
0
 
0
 
 
 
0
 
 
0
0
0
0
0
 
 
 
 
0
0


0
0
#HDR
-1
-1
#GR
nm
%T
1.0
0.0
750.000000
-0.100000
4501
8
74.130770
-0.023203
#DATA
750.000000	73.844154
749.900000	73.842595
749.800000	73.939358
749.700000	73.944086
749.600000	73.924020
749.500000	73.982559
749.400000	73.948343
749.300000	73.944409
749.200000	73.836929
749.100000	73.935898
749.000000	74.130770
748.900000	73.923694
748.800000	74.051977
748.700000	73.904925
748.600000	73.921089
748.500000	73.875153
748.400000	74.055062
748.300000	73.839176
748.200000	73.892640
748.100000	73.916457
748.000000	73.874186
747.900000	73.939393
747.800000	73.847244
747.700000	73.961860
747.600000	73.881818
747.500000	73.773047
747.400000	73.950280
747.300000	73.807271
747.200000	73.863669
747.100000	73.879992
747.000000	73.934608
746.900000	73.919556
746.800000	73.880357
746.700000	74.003066
746.600000	74.046910
746.500000	73.870989
746.400000	73.874075
746.300000	73.961907
746.200000	73.791520
746.100000	73.870128
746.000000	73.904347
745.900000	73.963659
745.800000	73.922040
745.700000	73.980647
745.600000	74.029708
745.500000	73.966755
745.400000	73.795674
745.300000	73.961579
745.200000	73.976018
745.100000	73.991007
745.000000	73.900463
744.900000	73.946178
744.800000	73.925696
744.700000	74.022352
744.600000	73.928741
744.500000	73.971662
744.400000	73.977151
744.300000	73.969771
744.200000	73.846022
744.100000	73.864193
744.000000	74.010649
743.900000	73.975118
743.800000	73.896345
743.700000	73.884866
743.600000	73.920103
743.500000	73.899984
743.400000	73.820235
743.300000	73.899926
743.200000	73.893061
743.100000	73.841130
743.000000	73.927654
742.900000	73.966682
742.800000	73.906288
742.700000	73.845152
742.600000	73.814723
742.500000	73.812165
742.400000	73.943169
742.300000	73.893529
742.200000	73.936652
742.100000	73.926860
742.000000	73.952050
741.900000	73.947477
741.800000	73.828251
741.700000	73.923217
741.600000	73.942220
741.500000	73.793755
741.400000	73.778148
741.300000	73.843192
741.200000	73.840215
741.100000	73.972080
741.000000	73.992223
740.900000	73.845126
740.800000	73.871469
740.700000	73.988333
740.600000	73.970318
740.500000	73.995808
740.400000	73.975512
740.300000	73.893868
740.200000	73.890714
740.100000	73.876780
740.000000	73.827811
739.900000	73.832928
739.800000	73.897342
739.700000	73.947833
739.600000	73.910667
739.500000	73.886408
739.400000	73.840206
739.300000	73.820917
739.200000	73.840621
739.100000	73.853031
739.000000	73.869016
738.900000	73.876581
738.800000	73.847180
738.700000	73.823925
738.600000	73.816529
738.500000	73.832435
738.400000	73.894546
738.300000	73.940862
738.200000	73.893529
738.100000	73.896385
738.000000	73.916737
737.900000	73.895432
737.800000	73.810818
737.700000	73.825002
737.600000	73.853259
737.500000	73.762419
737.400000	73.730203
737.300000	73.864312
737.200000	73.892050
737.100000	73.824629
737.000000	73.833433
736.900000	73.859890
736.800000	73.848290
736.700000	73.800082
736.600000	73.753325
736.500000	73.791625
736.400000	73.780852
736.300000	73.900827
736.200000	73.940115
736.100000	73.859369
736.000000	73.901162
735.900000	73.901575
735.800000	73.892342
735.700000	73.884583
735.600000	73.838275
735.500000	73.819370
735.400000	73.841936
735.300000	73.820400
735.200000	73.769469
735.100000	73.815554
735.000000	73.890042
734.900000	73.863194
734.800000	73.854930
734.700000	73.843207
734.600000	73.823516
734.500000	73.908131
734.400000	73.935470
734.300000	73.832326
734.200000	73.812175
734.100000	73.772669
734.000000	73.845685
733.900000	73.920097
733.800000	73.936214
733.700000	73.898047
733.600000	73.874138
733.500000	73.786130
733.400000	73.770815
733.300000	73.736548
733.200000	73.751215
733.100000	73.845469
733.000000	73.846299
732.900000	73.824727
732.800000	73.831774
732.700000	73.798435
732.600000	73.717089
732.500000	73.866786
732.400000	73.901206
732.300000	73.830304
732.200000	73.861190
732.100000	73.845586
732.000000	73.872499
731.900000	73.790153
731.800000	73.913768
731.700000	73.878841
731.600000	73.878577
731.500000	73.910510
731.400000	74.033454
731.300000	73.888419
731.200000	73.875635
731.100000	73.935058
731.000000	73.853863
730.900000	73.749482
730.800000	73.760342
730.700000	73.756249
730.600000	73.740843
730.500000	73.785239
730.400000	73.764859
730.300000	73.756181
730.200000	73.757903
730.100000	73.848811
730.000000	73.897419
729.900000	73.892071
729.800000	73.843617
729.700000	73.927629
729.600000	73.890660
729.500000	73.926241
729.400000	73.927674
729.300000	73.886077
729.200000	73.877636
729.100000	73.841036
729.000000	73.728634
728.900000	73.735406
728.800000	73.803571
728.700000	73.867156
728.600000	73.757566
728.500000	73.798824
728.400000	73.717543
728.300000	73.761700
728.200000	73.811042
728.100000	73.772591
728.000000	73.854803
727.900000	73.893362
727.800000	73.796281
727.700000	73.811239
727.600000	73.743353
727.500000	73.694744
727.400000	73.728739
727.300000	73.842710
727.200000	73.953776
727.100000	73.915823
727.000000	73.883985
726.900000	73.814488
726.800000	73.828222
726.700000	73.864243
726.600000	73.808406
726.500000	73.644675
726.400000	73.760025
726.300000	73.927859
726.200000	73.698721
726.100000	73.726839
726.000000	73.818554
725.900000	73.862839
725.800000	73.786110
725.700000	73.862092
725.600000	73.844457
725.500000	73.892340
725.400000	73.838984
725.300000	73.849128
725.200000	73.781348
725.100000	74.002727
725.000000	73.761572
724.900000	73.834446
724.800000	73.757470
724.700000	73.833725
724.600000	73.712168
724.500000	73.743394
724.400000	73.818757
724.300000	73.812590
724.200000	73.873740
724.100000	73.790806
724.000000	73.817452
723.900000	73.879194
723.800000	73.830939
723.700000	73.767034
723.600000	73.832121
723.500000	73.777975
723.400000	73.911900
723.300000	73.958822
723.200000	73.718250
723.100000	73.939794
723.000000	73.920682
722.900000	73.735561
722.800000	73.904520
722.700000	73.636126
722.600000	73.803369
722.500000	73.819416
722.400000	73.819695
722.300000	73.845228
722.200000	73.712798
722.100000	73.606399
722.000000	73.834600
721.900000	73.761876
721.800000	73.696295
721.700000	73.683894
721.600000	73.790471
721.500000	73.791882
721.400000	73.710171
721.300000	73.821252
721.200000	73.837281
721.100000	73.756768
721.000000	73.819589
720.900000	73.687283
720.800000	73.742690
720.700000	73.837730
720.600000	73.900399
720.500000	73.748044
720.400000	73.621122
720.300000	73.704178
720.200000	73.753613
720.100000	73.808463
720.000000	73.870965
719.900000	73.760133
719.800000	73.804349
719.700000	73.790742
719.600000	73.791674
719.500000	73.918472
719.400000	73.826009
719.300000	73.770440
719.200000	73.828679
719.100000	73.830119
719.000000	73.734651
718.900000	73.729965
718.800000	73.725139
718.700000	73.709419
718.600000	73.792597
718.500000	73.871321
718.400000	73.763032
718.300000	73.710436
718.200000	73.727261
718.100000	73.756228
718.000000	73.725324
717.900000	73.726613
717.800000	73.794276
717.700000	73.738740
717.600000	73.694581
717.500000	73.780084
717.400000	73.754941
717.300000	73.766523
717.200000	73.897639
717.100000	73.820883
717.000000	73.703905
716.900000	73.718760
716.800000	73.758054
716.700000	73.680374
716.600000	73.751338
716.500000	73.808670
716.400000	73.750481
716.300000	73.739267
716.200000	73.662676
716.100000	73.661386
716.000000	73.820204
715.900000	73.767797
715.800000	73.700482
715.700000	73.704568
715.600000	73.708676
715.500000	73.744397
715.400000	73.740919
715.300000	73.741689
715.200000	73.785340
715.100000	73.763709
715.000000	73.729567
714.900000	73.734162
714.800000	73.704142
714.700000	73.723596
714.600000	73.797052
714.500000	73.767392
714.400000	73.691093
714.300000	73.651460
714.200000	73.688592
714.100000	73.712622
714.000000	73.760810
713.900000	73.779847
713.800000	73.763109
713.700000	73.759043
713.600000	73.771167
713.500000	73.826230
713.400000	73.858591
713.300000	73.755455
713.200000	73.606252
713.100000	73.668851
713.000000	73.736081
712.900000	73.721395
712.800000	73.708879
712.700000	73.705277
712.600000	73.750528
712.500000	73.766381
712.400000	73.788259
712.300000	73.776255
712.200000	73.756270
712.100000	73.836159
712.000000	73.820413
711.900000	73.757435
711.800000	73.747008
711.700000	73.741243
711.600000	73.752885
711.500000	73.751419
711.400000	73.704246
711.300000	73.686004
711.200000	73.687056
711.100000	73.653748
711.000000	73.700115
710.900000	73.727544
710.800000	73.784013
710.700000	73.783435
710.600000	73.634904
710.500000	73.627200
710.400000	73.742890
710.300000	73.750713
710.200000	73.720264
710.100000	73.715091
710.000000	73.693833
709.900000	73.609030
709.800000	73.564831
709.700000	73.615564
709.600000	73.763700
709.500000	73.734240
709.400000	73.706199
709.300000	73.680138
709.200000	73.703517
709.100000	73.694007
709.000000	73.701876
708.900000	73.719196
708.800000	73.739940
708.700000	73.721118
708.600000	73.709725
708.500000	73.614462
708.400000	73.654428
708.300000	73.675422
708.200000	73.625590
708.100000	73.627270
708.000000	73.607991
707.900000	73.603281
707.800000	73.571684
707.700000	73.603013
707.600000	73.609672
707.500000	73.627093
707.400000	73.650260
707.300000	73.758654
707.200000	73.746823
707.100000	73.717290
707.000000	73.648119
706.900000	73.646062
706.800000	73.663901
706.700000	73.676880
706.600000	73.693343
706.500000	73.610751
706.400000	73.624045
706.300000	73.686749
706.200000	73.676466
706.100000	73.687017
706.000000	73.625830
705.900000	73.617563
705.800000	73.659690
705.700000	73.719172
705.600000	73.666089
705.500000	73.635837
705.400000	73.634977
705.300000	73.588919
705.200000	73.714405
705.100000	73.660981
705.000000	73.675628
704.900000	73.634537
704.800000	73.630910
704.700000	73.604919
704.600000	73.609852
704.500000	73.661274
704.400000	73.685479
704.300000	73.590295
704.200000	73.639700
704.100000	73.653781
704.000000	73.668702
703.900000	73.612597
703.800000	73.627715
703.700000	73.711463
703.600000	73.608826
703.500000	73.724838
703.400000	73.703128
703.300000	73.700855
703.200000	73.750879
703.100000	73.701403
703.000000	73.648946
702.900000	73.707854
702.800000	73.713364
702.700000	73.578200
702.600000	73.571550
702.500000	73.601702
702.400000	73.643910
702.300000	73.716012
702.200000	73.636217
702.100000	73.595231
702.000000	73.625212
701.900000	73.609119
701.800000	73.637212
701.700000	73.740107
701.600000	73.564470
701.500000	73.673534
701.400000	73.702801
701.300000	73.544109
701.200000	73.646069
701.100000	73.683784
701.000000	73.676204
700.900000	73.617684
700.800000	73.487048
700.700000	73.663471
700.600000	73.670649
700.500000	73.661081
700.400000	73.712973
700.300000	73.683418
700.200000	73.623036
700.100000	73.735642
700.000000	73.671172
699.900000	73.641754
699.800000	73.561300
699.700000	73.727963
699.600000	73.598667
699.500000	73.539629
699.400000	73.619784
699.300000	73.642198
699.200000	73.686799
699.100000	73.541236
699.000000	73.571795
698.900000	73.653309
698.800000	73.608628
698.700000	73.631053
698.600000	73.695414
698.500000	73.653516
698.400000	73.556363
698.300000	73.668381
698.200000	73.592269
698.100000	73.631490
698.000000	73.656779
697.900000	73.570072
697.800000	73.590294
697.700000	73.685980
697.600000	73.626344
697.500000	73.604988
697.400000	73.661320
697.300000	73.621613
697.200000	73.577817
697.100000	73.535479
697.000000	73.574725
696.900000	73.620356
696.800000	73.666084
696.700000	73.667109
696.600000	73.658608
696.500000	73.553999
696.400000	73.552065
696.300000	73.532126
696.200000	73.548074
696.100000	73.584751
696.000000	73.540653
695.900000	73.529525
695.800000	73.600228
695.700000	73.652097
695.600000	73.570593
695.500000	73.651889
695.400000	73.790406
695.300000	73.651321
695.200000	73.574942
695.100000	73.560051
695.000000	73.527265
694.900000	73.595498
694.800000	73.610153
694.700000	73.603557
694.600000	73.531621
694.500000	73.627084
694.400000	73.605854
694.300000	73.658379
694.200000	73.714497
694.100000	73.714909
694.000000	73.674644
693.900000	73.587656
693.800000	73.578746
693.700000	73.530695
693.600000	73.596506
693.500000	73.556148
693.400000	73.569269
693.300000	73.533640
693.200000	73.600799
693.100000	73.596680
693.000000	73.683137
692.900000	73.629340
692.800000	73.580778
692.700000	73.600544
692.600000	73.550865
692.500000	73.583564
692.400000	73.531842
692.300000	73.581500
692.200000	73.560118
692.100000	73.476828
692.000000	73.441351
691.900000	73.565687
691.800000	73.661055
691.700000	73.576445
691.600000	73.526821
691.500000	73.478835
691.400000	73.564087
691.300000	73.580710
691.200000	73.565552
691.100000	73.564113
691.000000	73.523265
690.900000	73.496675
690.800000	73.544629
690.700000	73.591598
690.600000	73.563047
690.500000	73.571835
690.400000	73.576603
690.300000	73.533889
690.200000	73.604840
690.100000	73.702019
690.000000	73.582985
689.900000	73.500552
689.800000	73.510933
689.700000	73.556786
689.600000	73.521376
689.500000	73.617037
689.400000	73.549625
689.300000	73.548623
689.200000	73.557880
689.100000	73.574600
689.000000	73.628694
688.900000	73.564258
688.800000	73.537115
688.700000	73.515700
688.600000	73.524869
688.500000	73.528619
688.400000	73.585496
688.300000	73.602731
688.200000	73.580412
688.100000	73.622359
688.000000	73.610345
687.900000	73.539277
687.800000	73.505686
687.700000	73.556479
687.600000	73.587210
687.500000	73.622109
687.400000	73.559117
687.300000	73.532703
687.200000	73.592477
687.100000	73.585944
687.000000	73.560409
686.900000	73.623768
686.800000	73.653638
686.700000	73.644252
686.600000	73.640755
686.500000	73.583540
686.400000	73.563980
686.300000	73.617917
686.200000	73.577044
686.100000	73.554340
686.000000	73.584200
685.900000	73.527644
685.800000	73.510064
685.700000	73.522856
685.600000	73.499023
685.500000	73.569221
685.400000	73.556937
685.300000	73.547368
685.200000	73.541519
685.100000	73.511539
685.000000	73.484494
684.900000	73.440606
684.800000	73.476761
684.700000	73.526753
684.600000	73.543014
684.500000	73.527549
684.400000	73.527837
684.300000	73.524544
684.200000	73.547853
684.100000	73.529489
684.000000	73.514977
683.900000	73.562425
683.800000	73.554657
683.700000	73.516205
683.600000	73.470366
683.500000	73.472071
683.400000	73.517169
683.300000	73.541355
683.200000	73.493085
683.100000	73.486574
683.000000	73.528611
682.900000	73.507069
682.800000	73.455524
682.700000	73.450143
682.600000	73.513179
682.500000	73.530727
682.400000	73.440055
682.300000	73.385077
682.200000	73.400208
682.100000	73.444778
682.000000	73.447352
681.900000	73.443115
681.800000	73.567694
681.700000	73.628349
681.600000	73.538898
681.500000	73.474409
681.400000	73.478898
681.300000	73.445587
681.200000	73.457696
681.100000	73.503721
681.000000	73.565248
680.900000	73.628390
680.800000	73.580621
680.700000	73.575496
680.600000	73.636087
680.500000	73.509085
680.400000	73.496890
680.300000	73.447810
680.200000	73.503758
680.100000	73.483634
680.000000	73.490837
679.900000	73.542716
679.800000	73.484501
679.700000	73.484116
679.600000	73.488458
679.500000	73.510614
679.400000	73.499816
679.300000	73.534556
679.200000	73.530808
679.100000	73.475453
679.000000	73.519509
678.900000	73.517331
678.800000	73.593339
678.700000	73.546217
678.600000	73.387002
678.500000	73.410343
678.400000	73.496477
678.300000	73.494278
678.200000	73.430532
678.100000	73.494702
678.000000	73.544466
677.900000	73.486029
677.800000	73.446965
677.700000	73.525677
677.600000	73.491237
677.500000	73.477555
677.400000	73.425210
677.300000	73.416468
677.200000	73.475608
677.100000	73.438962
677.000000	73.477232
676.900000	73.530922
676.800000	73.459606
676.700000	73.504963
676.600000	73.510498
676.500000	73.454275
676.400000	73.393761
676.300000	73.419723
676.200000	73.354215
676.100000	73.349316
676.000000	73.459650
675.900000	73.474329
675.800000	73.397122
675.700000	73.450435
675.600000	73.417279
675.500000	73.425612
675.400000	73.512065
675.300000	73.482633
675.200000	73.535794
675.100000	73.517903
675.000000	73.487789
674.900000	73.464505
674.800000	73.449356
674.700000	73.479976
674.600000	73.560872
674.500000	73.570117
674.400000	73.399581
674.300000	73.522830
674.200000	73.501216
674.100000	73.551240
674.000000	73.487954
673.900000	73.478204
673.800000	73.452310
673.700000	73.447472
673.600000	73.478328
673.500000	73.455514
673.400000	73.420032
673.300000	73.547196
673.200000	73.459739
673.100000	73.393894
673.000000	73.381401
672.900000	73.492799
672.800000	73.486461
672.700000	73.466578
672.600000	73.386683
672.500000	73.499736
672.400000	73.487308
672.300000	73.441110
672.200000	73.466842
672.100000	73.423756
672.000000	73.397618
671.900000	73.398961
671.800000	73.520040
671.700000	73.382604
671.600000	73.418089
671.500000	73.504630
671.400000	73.398814
671.300000	73.444601
671.200000	73.536055
671.100000	73.430638
671.000000	73.463965
670.900000	73.325495
670.800000	73.419159
670.700000	73.403403
670.600000	73.470257
670.500000	73.467256
670.400000	73.441068
670.300000	73.374504
670.200000	73.381885
670.100000	73.371266
670.000000	73.422505
669.900000	73.450585
669.800000	73.453351
669.700000	73.453968
669.600000	73.354851
669.500000	73.408946
669.400000	73.406548
669.300000	73.390105
669.200000	73.399942
669.100000	73.336320
669.000000	73.349016
668.900000	73.381900
668.800000	73.437011
668.700000	73.371739
668.600000	73.367421
668.500000	73.414714
668.400000	73.370353
668.300000	73.463887
668.200000	73.394247
668.100000	73.414055
668.000000	73.455889
667.900000	73.375614
667.800000	73.351506
667.700000	73.390424
667.600000	73.408681
667.500000	73.474806
667.400000	73.403182
667.300000	73.420487
667.200000	73.449367
667.100000	73.397500
667.000000	73.448250
666.900000	73.417841
666.800000	73.342130
666.700000	73.444015
666.600000	73.424317
666.500000	73.369964
666.400000	73.392884
666.300000	73.425506
666.200000	73.365235
666.100000	73.417964
666.000000	73.353407
665.900000	73.331310
665.800000	73.412952
665.700000	73.434577
665.600000	73.326015
665.500000	73.461635
665.400000	73.464108
665.300000	73.387429
665.200000	73.371995
665.100000	73.353074
665.000000	73.350755
664.900000	73.375191
664.800000	73.335586
664.700000	73.376753
664.600000	73.381364
664.500000	73.367200
664.400000	73.421019
664.300000	73.390303
664.200000	73.336141
664.100000	73.378068
664.000000	73.349675
663.900000	73.410147
663.800000	73.404566
663.700000	73.398909
663.600000	73.354949
663.500000	73.314264
663.400000	73.358809
663.300000	73.396863
663.200000	73.395451
663.100000	73.358466
663.000000	73.391809
662.900000	73.376569
662.800000	73.373349
662.700000	73.325498
662.600000	73.270708
662.500000	73.331645
662.400000	73.355717
662.300000	73.326240
662.200000	73.316179
662.100000	73.352765
