PE UV       SUBTECH     SPECTRUM    ASCII       PEDS        4.00        
   -1
Sample50.Sample.Raw.asc
21/02/10
11:14:22.00
21/02/10
11:14:22.00
Administrator

300.000000
1
Lambda 850
850L1710193
PerkinElmer UV WinLab 6.4.0.973 / 2.02.06 Lambda 800 UV/VIS, Jan 28 2016 16:58:34

0
0
2
0
0
UV/VIS
1
1
1
RBeamAtt,SBeamAtt,60mm sphere
0
0
0
0
Fix
 
0
0.2
0
0
0
 
 
 
0
 
0
319.2
0
Front
100
 
S:100 R:100
 
0
0
0
 
0
 
 
 
0
 
 
0
0
0
0
0
 
 
 
 
0
0


0
0
#HDR
-1
-1
#GR
nm
%T
1.0
0.0
750.000000
-0.100000
4501
8
69.258006
-0.005300
#DATA
750.000000	69.100558
749.900000	69.129361
749.800000	69.204223
749.700000	69.179861
749.600000	69.097277
749.500000	69.164018
749.400000	69.092698
749.300000	68.875558
749.200000	69.166408
749.100000	69.124480
749.000000	69.069927
748.900000	69.225334
748.800000	69.209261
748.700000	69.102035
748.600000	69.241760
748.500000	69.137750
748.400000	69.067504
748.300000	69.070649
748.200000	69.029171
748.100000	69.023005
748.000000	69.225889
747.900000	69.258006
747.800000	69.060196
747.700000	69.071179
747.600000	69.048416
747.500000	69.045073
747.400000	69.039549
747.300000	69.029471
747.200000	69.225537
747.100000	69.023425
747.000000	68.922434
746.900000	69.003339
746.800000	69.008749
746.700000	69.015228
746.600000	69.071549
746.500000	69.044626
746.400000	68.978694
746.300000	69.068670
746.200000	69.026785
746.100000	68.918547
746.000000	69.015747
745.900000	69.042854
745.800000	68.912936
745.700000	69.024381
745.600000	68.967402
745.500000	69.078136
745.400000	69.128962
745.300000	68.953021
745.200000	69.002609
745.100000	68.990105
745.000000	68.943293
744.900000	68.931770
744.800000	68.995898
744.700000	68.963815
744.600000	69.004685
744.500000	69.037482
744.400000	69.020028
744.300000	69.022887
744.200000	68.958660
744.100000	68.939828
744.000000	69.015744
743.900000	69.036596
743.800000	69.018608
743.700000	69.027882
743.600000	69.054674
743.500000	68.987382
743.400000	68.898797
743.300000	68.952556
743.200000	68.970792
743.100000	68.903794
743.000000	68.853930
742.900000	68.842555
742.800000	69.002277
742.700000	69.036356
742.600000	69.056955
742.500000	68.945968
742.400000	68.861256
742.300000	68.985897
742.200000	68.891669
742.100000	68.854710
742.000000	68.856093
741.900000	68.903344
741.800000	68.920238
741.700000	68.985657
741.600000	68.972256
741.500000	68.850497
741.400000	68.833383
741.300000	68.892316
741.200000	68.906036
741.100000	68.956690
741.000000	68.938119
740.900000	68.937534
740.800000	68.869649
740.700000	68.759040
740.600000	68.851522
740.500000	68.912410
740.400000	68.843871
740.300000	68.890541
740.200000	68.904460
740.100000	68.829974
740.000000	68.895689
739.900000	68.881799
739.800000	68.857528
739.700000	68.910581
739.600000	68.821929
739.500000	68.867548
739.400000	69.005819
739.300000	68.865425
739.200000	68.806943
739.100000	68.812633
739.000000	68.767791
738.900000	68.856204
738.800000	68.780955
738.700000	68.736541
738.600000	68.845602
738.500000	68.888103
738.400000	68.869551
738.300000	68.903780
738.200000	68.888086
738.100000	68.829880
738.000000	68.777707
737.900000	68.781658
737.800000	68.832141
737.700000	68.793317
737.600000	68.830380
737.500000	68.932295
737.400000	68.913045
737.300000	68.785457
737.200000	68.742033
737.100000	68.778270
737.000000	68.870988
736.900000	68.895318
736.800000	68.751009
736.700000	68.715268
736.600000	68.792440
736.500000	68.794292
736.400000	68.778629
736.300000	68.764713
736.200000	68.798810
736.100000	68.838976
736.000000	68.764491
735.900000	68.645522
735.800000	68.647724
735.700000	68.735091
735.600000	68.769302
735.500000	68.797304
735.400000	68.831622
735.300000	68.866519
735.200000	68.801536
735.100000	68.762174
735.000000	68.850696
734.900000	68.873679
734.800000	68.788033
734.700000	68.695826
734.600000	68.670371
734.500000	68.656661
734.400000	68.667255
734.300000	68.805309
734.200000	68.834745
734.100000	68.764101
734.000000	68.682846
733.900000	68.693436
733.800000	68.679466
733.700000	68.643472
733.600000	68.684443
733.500000	68.722226
733.400000	68.744803
733.300000	68.741416
733.200000	68.706160
733.100000	68.743683
733.000000	68.705423
732.900000	68.623535
732.800000	68.691310
732.700000	68.649871
732.600000	68.640282
732.500000	68.652880
732.400000	68.657645
732.300000	68.659007
732.200000	68.677544
732.100000	68.607587
732.000000	68.656805
731.900000	68.672448
731.800000	68.681927
731.700000	68.755009
731.600000	68.671330
731.500000	68.629603
731.400000	68.618622
731.300000	68.596619
731.200000	68.660553
731.100000	68.676437
731.000000	68.691468
730.900000	68.744762
730.800000	68.676841
730.700000	68.727197
730.600000	68.680281
730.500000	68.673193
730.400000	68.598829
730.300000	68.615113
730.200000	68.617642
730.100000	68.640359
730.000000	68.642041
729.900000	68.593395
729.800000	68.681329
729.700000	68.682141
729.600000	68.662857
729.500000	68.576308
729.400000	68.639928
729.300000	68.587018
729.200000	68.571194
729.100000	68.566488
729.000000	68.566946
728.900000	68.565458
728.800000	68.533533
728.700000	68.691480
728.600000	68.504341
728.500000	68.512614
728.400000	68.623142
728.300000	68.585802
728.200000	68.657117
728.100000	68.611276
728.000000	68.540755
727.900000	68.593250
727.800000	68.548248
727.700000	68.465732
727.600000	68.432485
727.500000	68.581225
727.400000	68.480028
727.300000	68.588952
727.200000	68.633358
727.100000	68.510061
727.000000	68.471319
726.900000	68.557082
726.800000	68.579112
726.700000	68.596718
726.600000	68.574814
726.500000	68.523773
726.400000	68.639117
726.300000	68.570261
726.200000	68.579437
726.100000	68.503424
726.000000	68.586344
725.900000	68.524698
725.800000	68.473415
725.700000	68.522500
725.600000	68.613243
725.500000	68.602333
725.400000	68.583933
725.300000	68.574423
725.200000	68.572057
725.100000	68.590095
725.000000	68.601372
724.900000	68.511754
724.800000	68.563437
724.700000	68.478404
724.600000	68.567861
724.500000	68.419880
724.400000	68.465819
724.300000	68.552515
724.200000	68.459174
724.100000	68.553265
724.000000	68.444096
723.900000	68.498785
723.800000	68.504424
723.700000	68.526465
723.600000	68.533736
723.500000	68.531443
723.400000	68.386817
723.300000	68.384505
723.200000	68.516514
723.100000	68.476043
723.000000	68.528939
722.900000	68.530736
722.800000	68.522704
722.700000	68.544426
722.600000	68.450143
722.500000	68.469840
722.400000	68.533722
722.300000	68.457830
722.200000	68.477655
722.100000	68.403857
722.000000	68.451564
721.900000	68.358049
721.800000	68.388932
721.700000	68.394116
721.600000	68.431792
721.500000	68.464720
721.400000	68.442978
721.300000	68.465895
721.200000	68.418367
721.100000	68.409226
721.000000	68.469586
720.900000	68.531381
720.800000	68.463112
720.700000	68.471750
720.600000	68.432136
720.500000	68.471077
720.400000	68.491779
720.300000	68.403346
720.200000	68.304409
720.100000	68.448846
720.000000	68.382761
719.900000	68.355781
719.800000	68.367024
719.700000	68.307545
719.600000	68.383924
719.500000	68.411176
719.400000	68.503975
719.300000	68.429356
719.200000	68.467493
719.100000	68.493196
719.000000	68.445030
718.900000	68.465805
718.800000	68.472795
718.700000	68.461344
718.600000	68.346216
718.500000	68.342905
718.400000	68.275110
718.300000	68.354089
718.200000	68.392745
718.100000	68.365195
718.000000	68.337659
717.900000	68.436403
717.800000	68.387665
717.700000	68.285213
717.600000	68.254365
717.500000	68.325080
717.400000	68.259453
717.300000	68.309851
717.200000	68.323038
717.100000	68.221686
717.000000	68.233880
716.900000	68.337977
716.800000	68.383118
716.700000	68.423909
716.600000	68.336338
716.500000	68.355011
716.400000	68.309146
716.300000	68.322535
716.200000	68.347150
716.100000	68.365956
716.000000	68.358311
715.900000	68.354103
715.800000	68.415622
715.700000	68.437861
715.600000	68.380536
715.500000	68.421817
715.400000	68.407324
715.300000	68.392836
715.200000	68.338480
715.100000	68.327011
715.000000	68.292460
714.900000	68.295556
714.800000	68.292739
714.700000	68.340727
714.600000	68.383137
714.500000	68.336448
714.400000	68.293161
714.300000	68.270059
714.200000	68.286723
714.100000	68.362885
714.000000	68.318535
713.900000	68.344016
713.800000	68.340662
713.700000	68.281776
713.600000	68.241734
713.500000	68.289125
713.400000	68.331375
713.300000	68.292026
713.200000	68.268633
713.100000	68.214479
713.000000	68.270928
712.900000	68.335686
712.800000	68.250057
712.700000	68.200398
712.600000	68.238655
712.500000	68.280933
712.400000	68.339094
712.300000	68.329776
712.200000	68.333181
712.100000	68.369590
712.000000	68.362028
711.900000	68.325267
711.800000	68.289197
711.700000	68.311917
711.600000	68.274322
711.500000	68.249788
711.400000	68.269232
711.300000	68.261421
711.200000	68.343016
711.100000	68.339394
711.000000	68.213218
710.900000	68.220985
710.800000	68.247115
710.700000	68.238500
710.600000	68.264918
710.500000	68.291629
710.400000	68.343381
710.300000	68.316861
710.200000	68.303085
710.100000	68.236326
710.000000	68.178642
709.900000	68.227877
709.800000	68.352322
709.700000	68.340548
709.600000	68.224070
709.500000	68.236840
709.400000	68.307283
709.300000	68.334213
709.200000	68.380653
709.100000	68.293076
709.000000	68.199232
708.900000	68.208335
708.800000	68.235296
708.700000	68.182483
708.600000	68.224159
708.500000	68.226410
708.400000	68.255264
708.300000	68.216153
708.200000	68.214419
708.100000	68.181280
708.000000	68.166609
707.900000	68.209017
707.800000	68.264521
707.700000	68.290002
707.600000	68.251551
707.500000	68.246772
707.400000	68.223015
707.300000	68.238026
707.200000	68.211723
707.100000	68.230281
707.000000	68.152880
706.900000	68.099308
706.800000	68.156419
706.700000	68.165454
706.600000	68.087978
706.500000	68.169590
706.400000	68.104659
706.300000	68.104348
706.200000	68.110382
706.100000	68.077896
706.000000	68.116147
705.900000	68.176878
705.800000	68.183171
705.700000	68.230065
705.600000	68.211126
705.500000	68.149208
705.400000	68.103131
705.300000	68.074079
705.200000	68.057695
705.100000	68.088657
705.000000	68.111462
704.900000	68.211591
704.800000	68.178598
704.700000	68.210048
704.600000	68.110475
704.500000	68.166372
704.400000	68.116421
704.300000	68.135400
704.200000	68.111303
704.100000	68.107366
704.000000	68.101727
703.900000	68.090072
703.800000	68.053088
703.700000	68.189585
703.600000	68.185812
703.500000	68.173966
703.400000	68.140560
703.300000	68.114370
703.200000	68.085150
703.100000	68.115547
703.000000	68.129274
702.900000	68.141790
702.800000	68.135740
702.700000	68.220380
702.600000	68.134136
702.500000	68.066067
702.400000	68.045071
702.300000	68.101524
702.200000	68.098952
702.100000	68.100205
702.000000	68.030756
701.900000	67.994197
701.800000	68.072166
701.700000	68.058201
701.600000	68.056481
701.500000	68.087257
701.400000	68.169150
701.300000	68.119727
701.200000	68.087158
701.100000	68.048426
701.000000	68.103480
700.900000	68.092913
700.800000	68.012488
700.700000	68.021142
700.600000	68.016325
700.500000	68.014989
700.400000	68.119581
700.300000	68.074603
700.200000	67.928918
700.100000	68.084074
700.000000	68.050881
699.900000	68.020174
699.800000	67.996776
699.700000	68.100737
699.600000	68.160108
699.500000	67.978058
699.400000	68.005163
699.300000	68.095665
699.200000	67.990175
699.100000	68.063452
699.000000	68.031298
698.900000	68.039007
698.800000	68.002546
698.700000	68.014471
698.600000	68.099805
698.500000	67.954692
698.400000	68.038870
698.300000	67.995160
698.200000	67.936218
698.100000	68.036462
698.000000	67.935154
697.900000	68.026021
697.800000	67.994062
697.700000	68.016091
697.600000	68.061620
697.500000	67.930543
697.400000	67.989782
697.300000	68.015991
697.200000	67.999754
697.100000	68.000154
697.000000	67.952239
696.900000	67.957847
696.800000	68.036469
696.700000	67.943881
696.600000	67.984657
696.500000	68.042672
696.400000	67.937980
696.300000	68.031178
696.200000	67.919892
696.100000	68.050431
696.000000	67.902526
695.900000	67.904321
695.800000	67.900676
695.700000	67.947060
695.600000	67.969485
695.500000	67.945363
695.400000	67.845500
695.300000	67.925663
695.200000	67.935189
695.100000	67.865233
695.000000	67.883681
694.900000	67.957628
694.800000	67.970806
694.700000	67.919075
694.600000	67.961587
694.500000	67.990982
694.400000	67.911372
694.300000	67.889445
694.200000	67.933502
694.100000	67.865387
694.000000	67.840733
693.900000	67.887630
693.800000	67.840177
693.700000	67.849092
693.600000	67.939517
693.500000	67.941614
693.400000	67.871572
693.300000	67.870799
693.200000	67.999413
693.100000	67.881014
693.000000	67.942616
692.900000	67.898245
692.800000	67.915290
692.700000	67.901102
692.600000	67.946759
692.500000	67.952720
692.400000	67.908404
692.300000	67.875468
692.200000	67.951674
692.100000	67.932598
692.000000	67.929782
691.900000	67.879563
691.800000	67.878463
691.700000	67.865544
691.600000	67.853426
691.500000	67.803449
691.400000	67.825536
691.300000	67.837771
691.200000	67.877380
691.100000	67.828821
691.000000	67.794971
690.900000	67.846070
690.800000	67.898895
690.700000	67.849230
690.600000	67.795958
690.500000	67.748334
690.400000	67.776707
690.300000	67.836858
690.200000	67.877214
690.100000	67.817156
690.000000	67.786936
689.900000	67.782246
689.800000	67.831565
689.700000	67.866573
689.600000	67.783891
689.500000	67.804332
689.400000	67.813376
689.300000	67.746463
689.200000	67.725471
689.100000	67.792608
689.000000	67.811799
688.900000	67.804241
688.800000	67.822112
688.700000	67.727625
688.600000	67.755035
688.500000	67.740163
688.400000	67.715343
688.300000	67.716778
688.200000	67.724248
688.100000	67.701870
688.000000	67.715967
687.900000	67.792982
687.800000	67.809364
687.700000	67.780230
687.600000	67.793752
687.500000	67.788174
687.400000	67.769272
687.300000	67.727043
687.200000	67.701520
687.100000	67.677988
687.000000	67.654113
686.900000	67.713223
686.800000	67.720227
686.700000	67.713299
686.600000	67.713407
686.500000	67.762199
686.400000	67.777826
686.300000	67.747514
686.200000	67.709769
686.100000	67.694647
686.000000	67.693723
685.900000	67.710785
685.800000	67.753509
685.700000	67.716187
685.600000	67.686325
685.500000	67.647667
685.400000	67.659158
685.300000	67.670742
685.200000	67.650159
685.100000	67.646682
685.000000	67.605486
684.900000	67.604392
684.800000	67.640645
684.700000	67.655728
684.600000	67.679755
684.500000	67.620817
684.400000	67.581807
684.300000	67.639684
684.200000	67.637571
684.100000	67.665751
684.000000	67.653976
683.900000	67.591364
683.800000	67.624304
683.700000	67.650008
683.600000	67.677243
683.500000	67.631808
683.400000	67.599111
683.300000	67.583868
683.200000	67.530381
683.100000	67.548503
683.000000	67.558453
682.900000	67.583062
682.800000	67.545182
682.700000	67.569536
682.600000	67.635403
682.500000	67.605936
682.400000	67.547345
682.300000	67.519132
682.200000	67.518951
682.100000	67.605686
682.000000	67.602754
681.900000	67.593747
681.800000	67.550946
681.700000	67.516681
681.600000	67.441761
681.500000	67.506971
681.400000	67.515714
681.300000	67.490333
681.200000	67.510529
681.100000	67.511954
681.000000	67.514033
680.900000	67.533218
680.800000	67.587376
680.700000	67.581812
680.600000	67.463363
680.500000	67.442036
680.400000	67.501183
680.300000	67.503818
680.200000	67.489826
680.100000	67.481716
680.000000	67.423666
679.900000	67.509008
679.800000	67.514055
679.700000	67.481502
679.600000	67.459215
679.500000	67.461103
679.400000	67.471241
679.300000	67.430567
679.200000	67.455216
679.100000	67.381793
679.000000	67.415932
678.900000	67.475954
678.800000	67.465107
678.700000	67.404269
678.600000	67.409748
678.500000	67.443151
678.400000	67.429282
678.300000	67.340942
678.200000	67.341300
678.100000	67.360225
678.000000	67.371461
677.900000	67.357111
677.800000	67.309445
677.700000	67.419134
677.600000	67.390615
677.500000	67.419744
677.400000	67.375474
677.300000	67.347135
677.200000	67.324340
677.100000	67.348136
677.000000	67.328220
676.900000	67.311577
676.800000	67.376124
676.700000	67.329176
676.600000	67.357947
676.500000	67.340165
676.400000	67.257103
676.300000	67.302159
676.200000	67.354652
676.100000	67.318104
676.000000	67.303968
675.900000	67.332121
675.800000	67.304855
675.700000	67.319903
675.600000	67.320573
675.500000	67.333097
675.400000	67.309347
675.300000	67.213237
675.200000	67.388049
675.100000	67.321560
675.000000	67.238831
674.900000	67.168030
674.800000	67.194666
674.700000	67.191643
674.600000	67.273344
674.500000	67.265475
674.400000	67.239132
674.300000	67.187269
674.200000	67.178741
674.100000	67.212586
674.000000	67.208912
673.900000	67.155101
673.800000	67.218642
673.700000	67.170162
673.600000	67.123699
673.500000	67.193865
673.400000	67.140083
673.300000	67.135717
673.200000	67.213457
673.100000	67.200273
673.000000	67.138184
672.900000	67.160181
672.800000	67.210511
672.700000	67.136050
672.600000	67.194099
672.500000	67.077166
672.400000	67.108144
672.300000	67.136202
672.200000	67.105726
672.100000	67.148030
672.000000	67.088940
671.900000	67.101690
671.800000	67.178725
671.700000	67.144951
671.600000	67.225857
671.500000	67.045580
671.400000	67.019367
671.300000	67.018742
671.200000	67.101046
671.100000	67.107379
671.000000	66.970368
670.900000	67.065239
670.800000	67.132664
670.700000	67.011270
670.600000	67.025954
670.500000	66.970165
670.400000	66.911557
670.300000	66.976804
670.200000	66.969576
670.100000	67.027441
670.000000	66.934908
669.900000	66.964779
669.800000	66.999965
669.700000	67.016467
669.600000	66.978312
669.500000	66.941225
669.400000	66.923253
669.300000	66.966773
669.200000	67.000638
669.100000	67.003880
669.000000	66.967557
668.900000	66.901439
668.800000	66.940053
668.700000	66.908818
668.600000	66.901006
668.500000	66.950054
668.400000	66.914453
668.300000	66.915101
668.200000	66.901706
668.100000	66.909866
668.000000	66.862830
667.900000	66.767498
667.800000	66.857699
667.700000	66.865188
667.600000	66.779445
667.500000	66.795237
667.400000	66.719869
667.300000	66.775446
667.200000	66.840650
667.100000	66.854724
667.000000	66.857898
666.900000	66.771005
666.800000	66.798510
666.700000	66.827492
666.600000	66.842758
666.500000	66.761602
666.400000	66.733946
666.300000	66.733894
666.200000	66.738355
666.100000	66.784695
666.000000	66.783029
665.900000	66.741302
665.800000	66.756777
665.700000	66.743595
665.600000	66.738951
665.500000	66.768723
665.400000	66.639987
665.300000	66.659837
665.200000	66.702176
665.100000	66.680602
665.000000	66.756093
664.900000	66.717992
664.800000	66.668479
664.700000	66.727247
664.600000	66.714201
664.500000	66.696615
664.400000	66.684120
664.300000	66.689573
664.200000	66.702681
664.100000	66.683582
664.000000	66.647562
663.900000	66.623812
663.800000	66.675562
663.700000	66.640727
663.600000	66.542128
663.500000	66.550460
663.400000	66.617283
663.300000	66.617344
663.200000	66.624350
663.100000	66.604635
663.000000	66.569057
662.900000	66.549778
662.800000	66.543466
662.700000	66.532311
662.600000	66.480964
662.500000	66.526237
662.400000	66.562696
662.300000	66.556165
662.200000	66.524997
662.100000	66.489280
